wavelength,alpha(m=0)
400,117.29
401,73.35
402,39.25
403,11.61
404,-11.57
405,-31.57
406,-49.23
407,-65.13
408,-79.70
409,-93.24
410,-105.99
411,-118.13
412,-129.81
413,-141.16
414,-152.27
415,-163.23
416,-174.14
417,-185.07
418,-196.10
419,-207.31
420,-218.79
421,-230.65
422,-243.01
423,-256.05
424,-270.00
425,-285.19
426,-302.13
427,-321.67
428,-345.34
429,-376.29
430,-422.17
431,-507.87
432,-788.09
689,1584.13
400.5,93.79
401.5,55.32
402.5,24.77
403.5,-0.44
404.5,-21.91
405.5,-40.65
406.5,-57.37
407.5,-72.56
408.5,-86.58
409.5,-99.70
410.5,-112.13
411.5,-124.02
412.5,-135.52
413.5,-146.74
414.5,-157.76
415.5,-168.69
416.5,-179.60
417.5,-190.57
418.5,-201.67
419.5,-213.01
420.5,-224.66
421.5,-236.76
422.5,-249.44
423.5,-262.90
424.5,-277.42
425.5,-293.40
426.5,-311.50
427.5,-332.85
428.5,-359.60
429.5,-396.52
430.5,-456.77
431.5,-594.90
432.08,-844.34
432.16,-915.19
432.24,-1007.30
432.32,-1132.11
432.4,-1311.04
432.48,-1589.48
432.56,-2083.30
432.64,-3202.25
432.67,-4101.52
432.68,-4540.41
432.765,NaN
432.775,NaN
432.84,4596.53
432.85,4009.64
432.86,3547.79
432.87,3174.85
432.95,1651.34
433.03,1051.08
433.11,729.66
433.19,529.20
433.27,392.07
433.35,292.24
433.43,216.21
433.51,156.28
434.01,-46.45
434.51,-136.42
435.01,-189.36
435.51,-225.51
436.01,-252.69
436.51,-274.56
437.01,-293.04
437.51,-309.26
438.01,-323.92
438.51,-337.46
439.01,-350.21
439.51,-362.38
440.01,-374.14
440.51,-385.61
441.01,-396.89
441.51,-408.05
442.01,-419.16
442.51,-430.27
443.01,-441.42
443.51,-452.66
444.01,-464.01
444.51,-475.51
445.01,-487.20
445.51,-499.08
446.01,-511.21
446.8,-530.90
447.3,-543.74
447.8,-556.92
448.3,-570.44
448.8,-584.35
449.3,-598.67
449.8,-613.43
450.3,-628.67
450.8,-644.41
451.3,-660.69
451.8,-677.55
452.3,-695.03
452.8,-713.18
453.3,-732.05
453.8,-751.67
454.3,-772.12
454.8,-793.45
455.3,-815.74
455.8,-839.04
456.3,-863.46
456.8,-889.07
457.3,-915.97
457.8,-944.28
458.3,-974.13
458.8,-1005.64
459.3,-1038.99
459.8,-1074.33
460.3,-1111.89
460.36,-1116.55
460.42,-1121.25
460.48,-1125.99
460.54,-1130.76
460.58,-1133.97
460.61,-1136.38
460.64,-1138.80
460.67,-1141.23
460.7,-1143.67
460.73,-1146.12
460.76,-1148.58
460.79,-1151.05
460.82,-1153.53
460.85,-1156.02
460.87,-1157.68
460.9,-1160.19
460.93,-1162.70
460.96,-1165.23
460.99,-1167.76
461.02,-1170.31
461.05,-1172.86
461.08,-1175.43
461.11,-1178.01
461.14,-1180.59
461.17,-1183.19
461.23,-1188.41
461.29,-1193.68
461.35,-1198.99
461.41,-1204.34
461.91,-1250.73
462.41,-1300.56
462.91,-1354.24
463.41,-1412.28
463.91,-1475.26
464.41,-1543.88
464.91,-1619.00
465.41,-1701.64
465.91,-1793.07
466.41,-1894.87
466.91,-2009.03
467.6,-2191.71
468.1,-2347.04
468.6,-2527.11
469.1,-2738.76
469.6,-2991.68
470.1,-3300.05
470.6,-3685.45
471.1,-4185.28
471.6,-4856.72
474.325,NaN
474.35,NaN
476.55,3620.45
477.05,2578.89
477.55,1802.14
478.05,1169.33
478.55,611.57
479.05,81.69
479.55,-460.55
480.05,-1059.22
480.55,-1775.44
481.05,-2712.59
481.55,-4080.22
483.34000000000003,NaN
483.41499999999996,NaN
486.25,4564.57
486.75,4009.79
487.25,3590.04
487.75,3260.07
488.25,2992.98
488.75,2771.72
489.25,2584.98
489.75,2424.95
490.25,2286.03
490.75,2164.12
491.25,2056.14
491.75,1959.71
492.25,1872.99
492.75,1794.51
493.25,1723.10
493.75,1657.80
494.25,1597.82
494.75,1542.50
495.25,1491.30
495.75,1443.76
496.25,1399.46
496.75,1358.09
497.25,1319.34
497.75,1282.97
498.25,1248.74
498.75,1216.48
499.25,1186.00
499.75,1157.16
500.25,1129.81
500.75,1103.86
501.25,1079.17
501.75,1055.67
502.25,1033.26
502.75,1011.87
503.25,991.42
503.75,971.86
504.25,953.11
504.75,935.14
505.25,917.89
505.75,901.32
506.25,885.38
506.75,870.04
507.25,855.26
507.75,841.02
508.25,827.28
508.75,814.01
509.25,801.19
509.75,788.80
510.25,776.81
510.75,765.21
511.25,753.97
511.75,743.08
512.25,732.52
512.75,722.27
513.25,712.32
513.75,702.66
514.25,693.27
514.75,684.14
515.25,675.27
515.75,666.63
516.25,658.22
516.75,650.03
517.25,642.05
517.75,634.27
518.25,626.68
518.75,619.28
519.25,612.06
519.75,605.01
520.25,598.13
520.75,591.40
521.25,584.83
521.75,578.41
522.25,572.12
522.75,565.98
523.25,559.97
523.75,554.08
524.25,548.32
524.75,542.67
525.25,537.14
525.75,531.73
526.25,526.42
526.75,521.21
527.25,516.10
527.75,511.09
528.25,506.18
528.75,501.35
529.25,496.62
529.75,491.97
530.25,487.40
530.75,482.91
531.25,478.51
531.75,474.17
532.25,469.91
532.75,465.72
533.25,461.60
533.75,457.55
534.25,453.56
534.75,449.64
535.25,445.78
535.75,441.97
536.25,438.23
536.75,434.54
537.25,430.91
537.75,427.33
538.25,423.80
538.75,420.33
539.25,416.90
539.75,413.52
540.25,410.19
540.75,406.90
541.25,403.66
541.75,400.45
542.25,397.30
542.75,394.18
543.25,391.10
543.75,388.06
544.25,385.06
544.75,382.10
545.25,379.17
545.75,376.28
546.25,373.42
546.75,370.60
547.25,367.80
547.75,365.04
548.25,362.31
548.75,359.61
549.25,356.94
549.75,354.30
550.25,351.69
550.75,349.10
551.25,346.54
551.75,344.01
552.25,341.50
552.75,339.02
553.25,336.56
553.75,334.12
554.25,331.71
554.75,329.32
555.25,326.95
555.75,324.60
556.25,322.27
556.75,319.97
557.25,317.68
557.75,315.41
558.25,313.17
558.75,310.94
559.25,308.72
559.75,306.53
560.25,304.35
560.75,302.19
561.25,300.05
561.75,297.92
562.25,295.80
562.75,293.70
563.25,291.62
563.75,289.55
564.25,287.49
564.75,285.45
565.25,283.42
565.75,281.40
566.25,279.40
566.75,277.41
567.25,275.43
567.75,273.46
568.25,271.50
568.75,269.55
569.25,267.61
569.75,265.68
570.25,263.77
570.75,261.86
571.25,259.96
571.75,258.07
572.25,256.18
572.75,254.31
573.25,252.44
573.75,250.59
574.25,248.74
574.75,246.89
575.25,245.05
575.75,243.22
576.25,241.40
576.75,239.58
577.25,237.77
577.75,235.96
578.25,234.16
578.75,232.36
579.25,230.57
579.75,228.78
580.25,227.00
580.75,225.22
581.25,223.44
581.75,221.67
582.25,219.90
582.75,218.13
583.25,216.37
583.75,214.60
584.25,212.84
584.75,211.08
585.25,209.33
585.75,207.57
586.25,205.82
586.75,204.06
587.25,202.31
587.75,200.56
588.25,198.81
588.75,197.05
589.25,195.30
589.75,193.55
590.25,191.79
590.75,190.03
591.25,188.28
591.75,186.52
592.25,184.75
592.75,182.99
593.25,181.22
593.75,179.45
594.25,177.68
594.75,175.91
595.25,174.13
595.75,172.34
596.25,170.55
596.75,168.76
597.25,166.96
597.75,165.16
598.25,163.35
598.75,161.54
599.25,159.72
599.75,157.89
600.25,156.06
600.75,154.22
601.25,152.37
601.75,150.52
602.25,148.65
602.75,146.78
603.25,144.90
603.75,143.01
604.25,141.11
604.75,139.20
605.25,137.28
605.75,135.35
606.25,133.41
606.75,131.46
607.25,129.50
607.75,127.52
608.25,125.53
608.75,123.53
609.25,121.51
609.75,119.49
610.25,117.44
610.75,115.38
611.25,113.31
611.75,111.22
612.25,109.11
612.75,106.99
613.25,104.84
613.75,102.68
614.25,100.51
614.75,98.31
615.25,96.09
615.75,93.85
616.25,91.59
616.75,89.31
617.25,87.01
617.75,84.68
618.25,82.33
618.75,79.96
619.25,77.56
619.75,75.13
620.25,72.67
620.75,70.19
621.25,67.68
621.75,65.14
622.25,62.57
622.75,59.97
623.25,57.34
623.75,54.67
624.25,51.96
624.75,49.23
625.25,46.45
625.75,43.64
626.25,40.79
626.75,37.90
627.25,34.96
627.75,31.99
628.25,28.96
628.75,25.90
629.25,22.78
629.75,19.62
630.25,16.41
630.75,13.14
631.25,9.82
631.75,6.44
632.25,3.01
632.75,-0.48
633.25,-4.04
633.75,-7.66
634.25,-11.34
634.75,-15.10
635.25,-18.92
635.75,-22.82
636.25,-26.79
636.75,-30.85
637.25,-34.98
637.75,-39.21
638.25,-43.51
638.75,-47.92
639.25,-52.41
639.75,-57.01
640.25,-61.71
640.75,-66.52
641.25,-71.43
641.75,-76.47
642.25,-81.62
642.75,-86.90
643.25,-92.32
643.75,-97.87
644.25,-103.56
644.75,-109.40
645.25,-115.40
645.75,-121.57
646.25,-127.90
646.75,-134.41
647.25,-141.11
647.75,-148.01
648.25,-155.11
648.75,-162.43
649.25,-169.97
649.75,-177.76
650.25,-185.80
650.75,-194.10
651.25,-202.68
651.75,-211.55
652.25,-220.74
652.75,-230.25
653.25,-240.11
653.75,-250.34
654.25,-260.97
654.75,-272.00
655.25,-283.48
655.75,-295.42
656.25,-307.87
656.75,-320.84
657.25,-334.39
657.75,-348.54
658.25,-363.35
658.75,-378.86
659.25,-395.12
659.75,-412.19
660.25,-430.14
660.75,-449.03
661.25,-468.95
661.75,-489.98
662.25,-512.22
662.75,-535.78
663.25,-560.79
663.75,-587.38
664.25,-615.71
664.75,-645.97
665.25,-678.35
665.75,-713.10
666.25,-750.48
666.75,-790.81
667.25,-834.46
667.75,-881.87
668.25,-933.53
668.75,-990.06
669.25,-1052.19
669.75,-1120.79
670.25,-1196.94
670.75,-1281.97
671.25,-1377.53
671.75,-1485.71
672.25,-1609.22
672.75,-1751.56
673.25,-1917.42
673.75,-2113.15
674.25,-2347.66
674.75,-2633.76
675.25,-2990.59
675.75,-3448.16
676.25,-4056.16
676.75,-4903.46
679.29,NaN
679.335,NaN
682.36,4499.42
682.86,3902.98
683.36,3452.93
683.86,3101.27
684.4,2798.70
684.9,2570.42
685.4,2379.45
685.9,2217.32
686.4,2077.95
686.9,1956.86
687.4,1850.66
687.9,1756.77
688.4,1673.15
688.9,1598.20
688.95,1591.13
689.05,1577.20
689.1,1570.35
689.15,1563.56
689.2,1556.84
689.25,1550.19
689.3,1543.61
689.35,1537.09
689.4,1530.63
689.415,1528.71
689.419,1528.20
689.423,1527.69
689.427,1527.17
689.431,1526.66
689.435,1526.15
689.439,1525.64
689.443,1525.13
689.447,1524.62
689.451,1524.11
689.455,1523.61
689.459,1523.10
689.463,1522.59
689.467,1522.08
689.471,1521.58
689.475,1521.07
689.479,1520.56
689.483,1520.06
689.487,1519.55
689.491,1519.05
689.541,1512.77
689.591,1506.55
689.641,1500.39
689.691,1494.29
689.741,1488.25
689.791,1482.26
689.841,1476.34
689.891,1470.46
689.941,1464.65
689.991,1458.88
690.491,1404.06
690.991,1353.91
691.491,1307.84
691.991,1265.38
692.491,1226.11
692.991,1189.69
693.491,1155.82
693.991,1124.23
694.491,1094.71
694.991,1067.04
695.491,1041.07
695.991,1016.64
696.491,993.62
696.991,971.88
697.491,951.32
697.991,931.85
698.491,913.38
698.991,895.83
699.491,879.14
699.991,863.24
700.491,848.09
700.991,833.62
701.491,819.79
701.991,806.56
702.491,793.89
702.991,781.74
703.491,770.09
703.991,758.90
704.491,748.14
704.991,737.80
705.491,727.84
705.991,718.24
706.491,708.99
706.991,700.06
707.491,691.45
707.991,683.12
708.491,675.07
708.991,667.29
709.491,659.76
709.991,652.46
710.491,645.40
710.991,638.54
711.491,631.90
711.991,625.45
712.491,619.19
712.991,613.11
713.491,607.20
713.991,601.45
714.491,595.86
714.991,590.43
715.491,585.13
715.991,579.98
716.491,574.96
716.991,570.06
717.491,565.29
717.991,560.64
718.491,556.10
718.991,551.67
719.491,547.35
719.991,543.12
720.491,539.00
720.991,534.97
721.491,531.03
721.991,527.18
722.491,523.41
722.991,519.72
723.491,516.12
723.991,512.59
724.491,509.13
724.991,505.75
725.491,502.43
725.991,499.18
726.491,496.00
726.991,492.88
727.491,489.82
727.991,486.82
728.491,483.87
728.991,480.99
729.491,478.15
729.991,475.37
730.491,472.64
730.991,469.96
731.491,467.33
731.991,464.74
732.491,462.20
732.991,459.70
733.491,457.25
733.991,454.84
734.491,452.46
734.991,450.13
735.491,447.84
735.991,445.58
736.491,443.36
736.991,441.18
737.491,439.03
737.991,436.91
738.491,434.83
738.991,432.78
739.491,430.76
739.991,428.77
740.491,426.81
740.991,424.88
741.491,422.98
741.991,421.11
742.491,419.26
742.991,417.44
743.491,415.65
743.991,413.88
744.491,412.13
744.991,410.41
745.491,408.72
745.991,407.04
746.491,405.39
746.991,403.76
747.491,402.16
747.991,400.57
748.491,399.01
748.991,397.46
749.491,395.94
749.991,394.43
750.491,392.95
750.991,391.48
751.491,390.03
751.991,388.60
752.491,387.18
752.991,385.79
753.491,384.41
753.991,383.04
754.491,381.70
754.991,380.36
755.491,379.05
755.991,377.75
756.491,376.46
756.991,375.19
757.491,373.94
757.991,372.69
758.491,371.47
758.991,370.25
759.491,369.05
759.991,367.86
760.491,366.69
760.991,365.52
761.491,364.37
761.991,363.24
762.491,362.11
762.991,361.00
763.491,359.90
763.991,358.80
764.491,357.73
764.991,356.66
765.491,355.60
765.991,354.55
766.491,353.52
766.991,352.49
767.491,351.47
767.991,350.47
768.491,349.47
768.991,348.48
769.491,347.51
769.991,346.54
770.491,345.58
770.991,344.63
771.491,343.69
771.991,342.76
772.491,341.84
772.991,340.92
773.491,340.01
773.991,339.12
774.491,338.23
774.991,337.34
775.491,336.47
775.991,335.60
776.491,334.74
776.991,333.89
777.491,333.05
777.991,332.21
778.491,331.38
778.991,330.56
779.491,329.75
779.991,328.94
780.491,328.14
780.991,327.34
781.491,326.55
781.991,325.77
782.491,325.00
782.991,324.23
783.491,323.46
783.991,322.71
784.491,321.96
784.991,321.21
785.491,320.47
785.991,319.74
786.491,319.01
786.991,318.29
787.491,317.58
787.991,316.86
788.491,316.16
788.991,315.46
789.491,314.77
789.991,314.08
790.491,313.39
790.991,312.71
791.491,312.04
791.991,311.37
792.491,310.71
792.991,310.05
793.491,309.40
793.991,308.75
794.491,308.10
794.991,307.46
795.491,306.83
795.991,306.19
796.491,305.57
796.991,304.94
797.491,304.33
797.991,303.71
798.491,303.10
798.991,302.50
799.491,301.90
799.991,301.30
800.491,300.71
800.991,300.12
801.491,299.53
801.991,298.95
802.491,298.37
802.991,297.80
803.491,297.23
803.991,296.66
804.491,296.10
804.991,295.54
805.491,294.99
805.991,294.44
806.491,293.89
806.991,293.34
807.491,292.80
807.991,292.26
808.491,291.73
808.991,291.20
809.491,290.67
809.991,290.15
810.491,289.62
810.991,289.11
811.491,288.59
811.991,288.08
812.491,287.57
812.991,287.06
813.491,286.56
813.991,286.06
814.491,285.56
814.991,285.07
815.491,284.58
815.991,284.09
816.491,283.61
816.991,283.12
817.491,282.64
817.991,282.17
818.491,281.69
818.991,281.22
819.491,280.75
819.991,280.28
820.491,279.82
820.991,279.36
821.491,278.90
821.991,278.44
822.491,277.99
822.991,277.54
823.491,277.09
823.991,276.64
824.491,276.20
824.991,275.76
825.491,275.32
825.991,274.88
826.491,274.45
826.991,274.01
827.491,273.58
827.991,273.16
828.491,272.73
828.991,272.31
829.491,271.89
829.991,271.47
830.491,271.05
830.991,270.64
831.491,270.22
831.991,269.81
832.491,269.40
832.991,269.00
833.491,268.59
833.991,268.19
834.491,267.79
834.991,267.39
835.491,266.99
835.991,266.60
836.491,266.21
836.991,265.82
837.491,265.43
837.991,265.04
838.491,264.66
838.991,264.27
839.491,263.89
839.991,263.51
840.491,263.13
840.991,262.76
841.491,262.38
841.991,262.01
842.491,261.64
842.991,261.27
843.491,260.90
843.991,260.54
844.491,260.17
844.991,259.81
845.491,259.45
845.991,259.09
846.491,258.73
846.991,258.37
847.491,258.02
847.991,257.67
848.491,257.31
848.991,256.97
849.491,256.62
849.991,256.27
850.491,255.92
850.991,255.58
851.491,255.24
851.991,254.90
852.491,254.56
852.991,254.22
853.491,253.88
853.991,253.55
854.491,253.21
854.991,252.88
855.491,252.55
855.991,252.22
856.491,251.89
856.991,251.57
857.491,251.24
857.991,250.92
858.491,250.59
858.991,250.27
859.491,249.95
859.991,249.63
860.491,249.31
860.991,249.00
861.491,248.68
861.991,248.37
862.491,248.06
862.991,247.75
863.491,247.43
863.991,247.13
864.491,246.82
864.991,246.51
865.491,246.21
865.991,245.90
866.491,245.60
866.991,245.30
867.491,245.00
867.991,244.70
868.491,244.40
868.991,244.10
869.491,243.80
869.991,243.51
870.491,243.21
870.991,242.92
871.491,242.63
871.991,242.34
872.491,242.05
872.991,241.76
873.491,241.47
873.991,241.19
874.491,240.90
874.991,240.62
875.491,240.33
875.991,240.05
876.491,239.77
876.991,239.49
877.491,239.21
877.991,238.93
878.491,238.65
878.991,238.37
879.491,238.10
879.991,237.82
880.491,237.55
880.991,237.28
881.491,237.01
881.991,236.74
882.491,236.47
882.991,236.20
883.491,235.93
883.991,235.66
884.491,235.39
884.991,235.13
885.491,234.86
885.991,234.60
886.491,234.34
886.991,234.08
887.491,233.81
887.991,233.55
888.491,233.29
888.991,233.04
889.491,232.78
889.991,232.52
890.491,232.26
890.991,232.01
891.491,231.76
891.991,231.50
892.491,231.25
892.991,231.00
893.491,230.75
893.991,230.49
894.491,230.24
894.991,230.00
895.491,229.75
895.991,229.50
896.491,229.25
896.991,229.01
897.491,228.76
897.991,228.52
898.491,228.27
898.991,228.03
899.491,227.79
899.991,227.55
900.491,227.31
900.991,227.07
901.491,226.83
901.991,226.59
902.491,226.35
902.991,226.11
903.491,225.88
903.991,225.64
904.491,225.41
904.991,225.17
905.491,224.94
905.991,224.71
906.491,224.47
906.991,224.24
907.491,224.01
907.991,223.78
908.491,223.55
908.991,223.32
909.491,223.09
909.991,222.87
910.491,222.64
910.991,222.41
911.491,222.19
911.991,221.96
912.491,221.74
912.991,221.51
913.491,221.29
913.991,221.07
914.491,220.84
914.991,220.62
915.491,220.40
915.991,220.18
916.491,219.96
916.991,219.74
917.491,219.52
917.991,219.30
918.491,219.09
918.991,218.87
919.491,218.65
919.991,218.44
920.491,218.22
920.991,218.01
921.491,217.79
921.991,217.58
922.491,217.37
922.991,217.15
923.491,216.94
923.991,216.73
924.491,216.52
924.991,216.31
925.491,216.10
925.991,215.89
926.491,215.68
926.991,215.47
927.491,215.27
927.991,215.06
928.491,214.85
928.991,214.65
929.491,214.44
929.991,214.23
930.491,214.03
930.991,213.83
931.491,213.62
931.991,213.42
932.491,213.22
932.991,213.01
933.491,212.81
933.991,212.61
934.491,212.41
934.991,212.21
935.491,212.01
935.991,211.81
936.491,211.61
936.991,211.41
937.491,211.22
937.991,211.02
938.491,210.82
938.991,210.62
939.491,210.43
939.991,210.23
940.491,210.04
940.991,209.84
941.491,209.65
941.991,209.45
942.491,209.26
942.991,209.07
943.491,208.87
943.991,208.68
944.491,208.49
944.991,208.30
945.491,208.11
945.991,207.92
946.491,207.73
946.991,207.54
947.491,207.35
947.991,207.16
948.491,206.97
948.991,206.78
949.491,206.59
949.991,206.41
950.491,206.22
950.991,206.03
951.491,205.85
951.991,205.66
952.491,205.48
952.991,205.29
953.491,205.11
953.991,204.92
954.491,204.74
954.991,204.55
955.491,204.37
955.991,204.19
956.491,204.01
956.991,203.82
957.491,203.64
957.991,203.46
958.491,203.28
958.991,203.10
959.491,202.92
959.991,202.74
960.491,202.56
960.991,202.38
961.491,202.20
961.991,202.02
962.491,201.85
962.991,201.67
963.491,201.49
963.991,201.31
964.491,201.14
964.991,200.96
965.491,200.79
965.991,200.61
966.491,200.43
966.991,200.26
967.491,200.09
967.991,199.91
968.491,199.74
968.991,199.56
969.491,199.39
969.991,199.22
970.491,199.04
970.991,198.87
971.491,198.70
971.991,198.53
972.491,198.36
972.991,198.18
973.491,198.01
973.991,197.84
974.491,197.67
974.991,197.50
975.491,197.33
975.991,197.16
976.491,197.00
976.991,196.83
977.491,196.66
977.991,196.49
978.491,196.32
978.991,196.15
979.491,195.99
979.991,195.82
980.491,195.65
980.991,195.49
981.491,195.32
981.991,195.15
982.491,194.99
982.991,194.82
983.491,194.66
983.991,194.49
984.491,194.33
984.991,194.17
985.491,194.00
985.991,193.84
986.491,193.67
986.991,193.51
987.491,193.35
987.991,193.19
988.491,193.02
988.991,192.86
989.491,192.70
989.991,192.54
990.491,192.38
990.991,192.22
991.491,192.06
991.991,191.89
992.491,191.73
992.991,191.57
993.491,191.41
993.991,191.26
994.491,191.10
994.991,190.94
995.491,190.78
995.991,190.62
996.491,190.46
996.991,190.30
997.491,190.15
997.991,189.99
998.491,189.83
998.991,189.67
999.491,189.52
999.991,189.36
1000.491,189.20
1000.991,189.05
1001.491,188.89
1001.991,188.74
1002.491,188.58
1002.991,188.42
1003.491,188.27
1003.991,188.11
1004.491,187.96
1004.991,187.81
1005.491,187.65
1005.991,187.50
1006.491,187.34
1006.991,187.19
1007.491,187.04
1007.991,186.88
1008.491,186.73
1008.991,186.58
1009.491,186.43
1009.991,186.27
1010.491,186.12
1010.991,185.97
1011.491,185.82
1011.991,185.67
1012.491,185.52
1012.991,185.37
1013.491,185.21
1013.991,185.06
1014.491,184.91
1014.991,184.76
1015.491,184.61
1015.991,184.46
1016.491,184.31
1016.991,184.16
1017.491,184.02
1017.991,183.87
1018.491,183.72
1018.991,183.57
1019.491,183.42
1019.991,183.27
1020.491,183.12
1020.991,182.98
1021.491,182.83
1021.991,182.68
1022.491,182.53
1022.991,182.39
1023.491,182.24
1023.991,182.09
1024.491,181.95
1024.991,181.80
1025.491,181.65
1025.991,181.51
1026.491,181.36
1026.991,181.22
1027.491,181.07
1027.991,180.93
1028.491,180.78
1028.991,180.64
1029.491,180.49
1029.991,180.35
1030.491,180.20
1030.991,180.06
1031.491,179.91
1031.991,179.77
1032.491,179.63
1032.991,179.48
1033.491,179.34
1033.991,179.20
1034.491,179.05
1034.991,178.91
1035.491,178.77
1035.991,178.62
1036.491,178.48
1036.991,178.34
1037.491,178.20
1037.991,178.06
1038.491,177.91
1038.991,177.77
1039.491,177.63
1039.991,177.49
1040.491,177.35
1040.991,177.21
1041.491,177.07
1041.991,176.93
1042.491,176.79
1042.991,176.64
1043.491,176.50
1043.991,176.36
1044.491,176.22
1044.991,176.08
1045.491,175.94
1045.991,175.81
1046.491,175.67
1046.991,175.53
1047.491,175.39
1047.991,175.25
1048.491,175.11
1048.991,174.97
1049.491,174.83
1049.991,174.69
1050.491,174.56
1050.991,174.42
1051.491,174.28
1051.991,174.14
1052.491,174.00
1052.991,173.87
1053.491,173.73
1053.991,173.59
1054.491,173.45
1054.991,173.32
1055.491,173.18
1055.991,173.04
1056.491,172.91
1056.991,172.77
1057.491,172.63
1057.991,172.50
1058.491,172.36
1058.991,172.22
1059.491,172.09
1059.991,171.95
1060.491,171.82
1060.991,171.68
1061.491,171.55
1061.991,171.41
1062.491,171.28
1062.991,171.14
1063.491,171.01
1063.991,170.87
1064.491,170.74
1064.991,170.60
1065.491,170.47
1065.991,170.33
1066.491,170.20
1066.991,170.06
1067.491,169.93
1067.991,169.80
1068.491,169.66
1068.991,169.53
1069.491,169.40
1069.991,169.26
1070.491,169.13
1070.991,169.00
1071.491,168.86
1071.991,168.73
1072.491,168.60
1072.991,168.46
1073.491,168.33
1073.991,168.20
1074.491,168.07
1074.991,167.93
1075.491,167.80
1075.991,167.67
1076.491,167.54
1076.991,167.41
1077.491,167.27
1077.991,167.14
1078.491,167.01
1078.991,166.88
1079.491,166.75
1079.991,166.62
1080.491,166.49
1080.991,166.35
1081.491,166.22
1081.991,166.09
1082.491,165.96
1082.991,165.83
1083.491,165.70
1083.991,165.57
1084.491,165.44
1084.991,165.31
1085.491,165.18
1085.991,165.05
1086.491,164.92
1086.991,164.79
1087.491,164.66
1087.991,164.53
1088.491,164.40
1088.991,164.27
1089.491,164.14
1089.991,164.01
1090.491,163.88
1090.991,163.75
1091.491,163.62
1091.991,163.49
1092.491,163.37
1092.991,163.24
1093.491,163.11
1093.991,162.98
1094.491,162.85
1094.991,162.72
1095.491,162.59
1095.991,162.47
1096.491,162.34
1096.991,162.21
1097.491,162.08
1097.991,161.95
1098.491,161.82
1098.991,161.70
1099.491,161.57
1099.991,161.44
1100.491,161.31
1100.991,161.19
1101.491,161.06
1101.991,160.93
1102.491,160.80
1102.991,160.68
1103.491,160.55
1103.991,160.42
1104.491,160.30
1104.991,160.17
1105.491,160.04
1105.991,159.91
1106.491,159.79
1106.991,159.66
1107.491,159.53
1107.991,159.41
1108.491,159.28
1108.991,159.16
1109.491,159.03
1109.991,158.90
1110.491,158.78
1110.991,158.65
1111.491,158.52
1111.991,158.40
1112.491,158.27
1112.991,158.15
1113.491,158.02
1113.991,157.90
1114.491,157.77
1114.991,157.64
1115.491,157.52
1115.991,157.39
1116.491,157.27
1116.991,157.14
1117.491,157.02
1117.991,156.89
1118.491,156.77
1118.991,156.64
1119.491,156.52
1119.991,156.39
1120.491,156.27
1120.991,156.14
1121.491,156.02
1121.991,155.89
1122.491,155.77
1122.991,155.64
1123.491,155.52
1123.991,155.40
1124.491,155.27
1124.991,155.15
1125.491,155.02
1125.991,154.90
1126.491,154.77
1126.991,154.65
1127.491,154.53
1127.991,154.40
1128.491,154.28
1128.991,154.15
1129.491,154.03
1129.991,153.91
1130.491,153.78
1130.991,153.66
1131.491,153.54
1131.991,153.41
1132.491,153.29
1132.991,153.17
1133.491,153.04
1133.991,152.92
1134.491,152.80
1134.991,152.67
1135.491,152.55
1135.991,152.43
1136.491,152.30
1136.991,152.18
1137.491,152.06
1137.991,151.93
1138.491,151.81
1138.991,151.69
1139.491,151.57
1139.991,151.44
1140.491,151.32
1140.991,151.20
1141.491,151.08
1141.991,150.95
1142.491,150.83
1142.991,150.71
1143.491,150.59
1143.991,150.46
1144.491,150.34
1144.991,150.22
1145.491,150.10
1145.991,149.97
1146.491,149.85
1146.991,149.73
1147.491,149.61
1147.991,149.49
1148.491,149.36
1148.991,149.24
1149.491,149.12
1149.991,149.00
1150.491,148.88
1150.991,148.75
1151.491,148.63
1151.991,148.51
1152.491,148.39
1152.991,148.27
1153.491,148.14
1153.991,148.02
1154.491,147.90
1154.991,147.78
1155.491,147.66
1155.991,147.54
1156.491,147.42
1156.991,147.29
1157.491,147.17
1157.991,147.05
1158.491,146.93
1158.991,146.81
1159.491,146.69
1159.991,146.57
1160.491,146.45
1160.991,146.32
1161.491,146.20
1161.991,146.08
1162.491,145.96
1162.991,145.84
1163.491,145.72
1163.991,145.60
1164.491,145.48
1164.991,145.36
1165.491,145.24
1165.991,145.11
1166.491,144.99
1166.991,144.87
1167.491,144.75
1167.991,144.63
1168.491,144.51
1168.991,144.39
1169.491,144.27
1169.991,144.15
1170.491,144.03
1170.991,143.91
1171.491,143.79
1171.991,143.67
1172.491,143.55
1172.991,143.43
1173.491,143.31
1173.991,143.19
1174.491,143.06
1174.991,142.94
1175.491,142.82
1175.991,142.70
1176.491,142.58
1176.991,142.46
1177.491,142.34
1177.991,142.22
1178.491,142.10
1178.991,141.98
1179.491,141.86
1179.991,141.74
1180.491,141.62
1180.991,141.50
1181.491,141.38
1181.991,141.26
1182.491,141.14
1182.991,141.02
1183.491,140.90
1183.991,140.78
1184.491,140.66
1184.991,140.54
1185.491,140.42
1185.991,140.30
1186.491,140.18
1186.991,140.06
1187.491,139.94
1187.991,139.82
1188.491,139.70
1188.991,139.58
1189.491,139.46
1189.991,139.34
1190.491,139.22
1190.991,139.10
1191.491,138.98
1191.991,138.86
1192.491,138.74
1192.991,138.62
1193.491,138.50
1193.991,138.38
1194.491,138.26
1194.991,138.14
1195.491,138.03
1195.991,137.91
1196.491,137.79
1196.991,137.67
1197.491,137.55
1197.991,137.43
1198.491,137.31
1198.991,137.19
1199.491,137.07
1199.991,136.95
1200.491,136.83
1200.991,136.71
1201.491,136.59
1201.991,136.47
1202.491,136.35
1202.991,136.23
1203.491,136.11
1203.991,135.99
1204.491,135.87
1204.991,135.75
1205.491,135.63
1205.991,135.51
1206.491,135.39
1206.991,135.27
1207.491,135.16
1207.991,135.04
1208.491,134.92
1208.991,134.80
1209.491,134.68
1209.991,134.56
1210.491,134.44
1210.991,134.32
1211.491,134.20
1211.991,134.08
1212.491,133.96
1212.991,133.84
1213.491,133.72
1213.991,133.60
1214.491,133.48
1214.991,133.36
1215.491,133.24
1215.991,133.12
1216.491,133.00
1216.991,132.89
1217.491,132.77
1217.991,132.65
1218.491,132.53
1218.991,132.41
1219.491,132.29
1219.991,132.17
1220.491,132.05
1220.991,131.93
1221.491,131.81
1221.991,131.69
1222.491,131.57
1222.991,131.45
1223.491,131.33
1223.991,131.21
1224.491,131.09
1224.991,130.97
1225.491,130.85
1225.991,130.74
1226.491,130.62
1226.991,130.50
1227.491,130.38
1227.991,130.26
1228.491,130.14
1228.991,130.02
1229.491,129.90
1229.991,129.78
1230.491,129.66
1230.991,129.54
1231.491,129.42
1231.991,129.30
1232.491,129.18
1232.991,129.06
1233.491,128.94
1233.991,128.82
1234.491,128.70
1234.991,128.58
1235.491,128.46
1235.991,128.34
1236.491,128.22
1236.991,128.10
1237.491,127.99
1237.991,127.87
1238.491,127.75
1238.991,127.63
1239.491,127.51
1239.991,127.39
1240.491,127.27
1240.991,127.15
1241.491,127.03
1241.991,126.91
1242.491,126.79
1242.991,126.67
1243.491,126.55
1243.991,126.43
1244.491,126.31
1244.991,126.19
1245.491,126.07
1245.991,125.95
1246.491,125.83
1246.991,125.71
1247.491,125.59
1247.991,125.47
1248.491,125.35
1248.991,125.23
1249.491,125.11
1249.991,124.99
1250.491,124.87
1250.991,124.75
1251.491,124.63
1251.991,124.51
1252.491,124.39
1252.991,124.27
1253.491,124.15
1253.991,124.03
1254.491,123.91
1254.991,123.79
1255.491,123.67
1255.991,123.55
1256.491,123.43
1256.991,123.31
1257.491,123.19
1257.991,123.07
1258.491,122.95
1258.991,122.83
1259.491,122.71
1259.991,122.59
1260.491,122.47
1260.991,122.35
1261.491,122.23
1261.991,122.11
1262.491,121.99
1262.991,121.86
1263.491,121.74
1263.991,121.62
1264.491,121.50
1264.991,121.38
1265.491,121.26
1265.991,121.14
1266.491,121.02
1266.991,120.90
1267.491,120.78
1267.991,120.66
1268.491,120.54
1268.991,120.42
1269.491,120.30
1269.991,120.18
1270.491,120.06
1270.991,119.93
1271.491,119.81
1271.991,119.69
1272.491,119.57
1272.991,119.45
1273.491,119.33
1273.991,119.21
1274.491,119.09
1274.991,118.97
1275.491,118.85
1275.991,118.73
1276.491,118.60
1276.991,118.48
1277.491,118.36
1277.991,118.24
1278.491,118.12
1278.991,118.00
1279.491,117.88
1279.991,117.76
1280.491,117.63
1280.991,117.51
1281.491,117.39
1281.991,117.27
1282.491,117.15
1282.991,117.03
1283.491,116.91
1283.991,116.78
1284.491,116.66
1284.991,116.54
1285.491,116.42
1285.991,116.30
1286.491,116.18
1286.991,116.05
1287.491,115.93
1287.991,115.81
1288.491,115.69
1288.991,115.57
1289.491,115.45
1289.991,115.32
1290.491,115.20
1290.991,115.08
1291.491,114.96
1291.991,114.84
1292.491,114.71
1292.991,114.59
1293.491,114.47
1293.991,114.35
1294.491,114.23
1294.991,114.10
1295.491,113.98
1295.991,113.86
1296.491,113.74
1296.991,113.61
1297.491,113.49
1297.991,113.37
1298.491,113.25
1298.991,113.12
1299.491,113.00
1299.991,112.88
1300.491,112.76
1300.991,112.63
1301.491,112.51
1301.991,112.39
1302.491,112.27
1302.991,112.14
1303.491,112.02
1303.991,111.90
1304.491,111.77
1304.991,111.65
1305.491,111.53
1305.991,111.41
1306.491,111.28
1306.991,111.16
1307.491,111.04
1307.991,110.91
1308.491,110.79
1308.991,110.67
1309.491,110.54
1309.991,110.42
1310.491,110.30
1310.991,110.17
1311.491,110.05
1311.991,109.93
1312.491,109.80
1312.991,109.68
1313.491,109.56
1313.991,109.43
1314.491,109.31
1314.991,109.19
1315.491,109.06
1315.991,108.94
1316.491,108.81
1316.991,108.69
1317.491,108.57
1317.991,108.44
1318.491,108.32
1318.991,108.19
1319.491,108.07
1319.991,107.95
1320.491,107.82
1320.991,107.70
1321.491,107.57
1321.991,107.45
1322.491,107.32
1322.991,107.20
1323.491,107.08
1323.991,106.95
1324.491,106.83
1324.991,106.70
1325.491,106.58
1325.991,106.45
1326.491,106.33
1326.991,106.20
1327.491,106.08
1327.991,105.95
1328.491,105.83
1328.991,105.70
1329.491,105.58
1329.991,105.45
1330.491,105.33
1330.991,105.20
1331.491,105.08
1331.991,104.95
1332.491,104.83
1332.991,104.70
1333.491,104.58
1333.991,104.45
1334.491,104.33
1334.991,104.20
1335.491,104.07
1335.991,103.95
1336.491,103.82
1336.991,103.70
1337.491,103.57
1337.991,103.45
1338.491,103.32
1338.991,103.19
1339.491,103.07
1339.991,102.94
1340.491,102.82
1340.991,102.69
1341.491,102.56
1341.991,102.44
1342.491,102.31
1342.991,102.18
1343.491,102.06
1343.991,101.93
1344.7,101.75
1345.2,101.63
1345.7,101.50
1346.2,101.37
1346.7,101.25
1347.2,101.12
1347.7,100.99
1348.2,100.86
1348.7,100.74
1349.2,100.61
1349.7,100.48
1350.2,100.36
1350.7,100.23
1351.2,100.10
1351.7,99.97
1352.2,99.85
1352.7,99.72
1353.2,99.59
1353.7,99.47
1354.2,99.34
1354.7,99.21
1355.2,99.08
1355.7,98.95
1356.2,98.83
1356.7,98.70
1357.2,98.57
1357.7,98.44
1358.2,98.31
1358.7,98.19
1359.2,98.06
1359.7,97.93
1360.2,97.80
1360.7,97.67
1361.2,97.55
1361.7,97.42
1362.2,97.29
1362.7,97.16
1363.2,97.03
1363.7,96.90
1364.2,96.77
1364.7,96.65
1365.2,96.52
1365.7,96.39
1366.2,96.26
1366.7,96.13
1367.2,96.00
1367.7,95.87
1368.2,95.74
1368.7,95.61
1369.2,95.48
1369.7,95.35
1370.2,95.22
1370.7,95.09
1371.2,94.97
1371.7,94.84
1372.2,94.71
1372.7,94.58
1373.2,94.45
1373.7,94.32
1374.2,94.19
1374.7,94.06
1375.2,93.93
1375.7,93.80
1376.2,93.67
1376.7,93.54
1377.2,93.40
1377.7,93.27
1378.2,93.14
1378.7,93.01
1379.2,92.88
1379.7,92.75
1380.2,92.62
1380.7,92.49
1381.2,92.36
1381.7,92.23
1382.2,92.10
1382.7,91.97
1383.2,91.84
1383.7,91.70
1384.2,91.57
1384.7,91.44
1385.2,91.31
1385.7,91.18
1386.2,91.05
1386.7,90.92
1387.2,90.78
1387.7,90.65
1388.2,90.52
1388.7,90.39
1389.2,90.26
1389.7,90.12
1390.2,89.99
1390.7,89.86
1391.2,89.73
1391.7,89.60
1392.2,89.46
1392.7,89.33
1393.2,89.20
1393.7,89.07
1394.2,88.93
1394.7,88.80
1395.2,88.67
1395.7,88.53
1396.2,88.40
1396.7,88.27
1397.2,88.13
1397.7,88.00
1398.2,87.87
1398.7,87.74
1399.2,87.60
1399.7,87.47
1400.2,87.33
1400.7,87.20
1401.2,87.07
1401.7,86.93
1402.2,86.80
1402.7,86.67
1403.2,86.53
1403.7,86.40
1404.2,86.26
1404.7,86.13
1405.2,86.00
1405.7,85.86
1406.2,85.73
1406.7,85.59
1407.2,85.46
1407.7,85.32
1408.2,85.19
1408.7,85.05
1409.2,84.92
1409.7,84.78
1410.2,84.65
1410.7,84.51
1411.2,84.38
1411.7,84.24
1412.2,84.11
1412.7,83.97
1413.2,83.84
1413.7,83.70
1414.2,83.56
1414.7,83.43
1415.2,83.29
1415.7,83.16
1416.2,83.02
1416.7,82.89
1417.2,82.75
1417.7,82.61
1418.2,82.48
1418.7,82.34
1419.2,82.20
1419.7,82.07
1420.2,81.93
1420.7,81.79
1421.2,81.66
1421.7,81.52
1422.2,81.38
1422.7,81.25
1423.2,81.11
1423.7,80.97
1424.2,80.83
1424.7,80.70
1425.2,80.56
1425.7,80.42
1426.2,80.28
1426.7,80.15
1427.2,80.01
1427.7,79.87
1428.2,79.73
1428.7,79.60
1429.2,79.46
1429.7,79.32
1430.2,79.18
1430.7,79.04
1431.2,78.90
1431.7,78.77
1432.2,78.63
1432.7,78.49
1433.2,78.35
1433.7,78.21
1434.2,78.07
1434.7,77.93
1435.2,77.79
1435.7,77.65
1436.2,77.51
1436.7,77.38
1437.2,77.24
1437.7,77.10
1438.2,76.96
1438.7,76.82
1439.2,76.68
1439.7,76.54
1440.2,76.40
1440.7,76.26
1441.2,76.12
1441.7,75.98
1442.2,75.84
1442.7,75.70
1443.2,75.56
1443.7,75.41
1444.2,75.27
1444.7,75.13
1445.2,74.99
1445.7,74.85
1446.2,74.71
1446.7,74.57
1447.2,74.43
1447.7,74.29
1448.2,74.14
1448.7,74.00
1449.2,73.86
1449.7,73.72
1450.2,73.58
1450.7,73.44
1451.2,73.29
1451.7,73.15
1452.2,73.01
1452.7,72.87
1453.2,72.72
1453.7,72.58
1454.2,72.44
1454.7,72.30
1455.2,72.15
1455.7,72.01
1456.2,71.87
1456.7,71.73
1457.2,71.58
1457.7,71.44
1458.2,71.30
1458.7,71.15
1459.2,71.01
1459.7,70.87
1460.2,70.72
1460.7,70.58
1461.2,70.43
1461.7,70.29
1462.2,70.15
1462.7,70.00
1463.2,69.86
1463.7,69.71
1464.2,69.57
1464.7,69.42
1465.2,69.28
1465.7,69.13
1466.2,68.99
1466.7,68.84
1467.2,68.70
1467.7,68.55
1468.2,68.41
1468.7,68.26
1469.2,68.12
1469.7,67.97
1470.2,67.83
1470.7,67.68
1471.2,67.54
1471.7,67.39
1472.2,67.24
1472.7,67.10
1473.2,66.95
1473.7,66.80
1474.2,66.66
1474.7,66.51
1475.2,66.36
1475.7,66.22
1476.2,66.07
1476.7,65.92
1477.2,65.78
1477.7,65.63
1478.2,65.48
1478.7,65.33
1479.2,65.19
1479.7,65.04
1480.2,64.89
1480.7,64.74
1481.2,64.60
1481.7,64.45
1482.2,64.30
1482.7,64.15
1483.2,64.00
1483.7,63.85
1484.2,63.71
1484.7,63.56
1485.2,63.41
1485.7,63.26
1486.2,63.11
1486.7,62.96
1487.2,62.81
1487.7,62.66
1488.2,62.51
1488.7,62.36
1489.2,62.21
1489.7,62.06
1490.2,61.91
1490.7,61.76
1491.2,61.61
1491.7,61.46
1492.2,61.31
1492.7,61.16
1493.2,61.01
1493.7,60.86
1494.2,60.71
1494.7,60.56
1495.2,60.41
1495.7,60.26
1496.2,60.11
1496.7,59.96
1497.2,59.81
1497.7,59.65
1498.2,59.50
1498.7,59.35
1499.2,59.20
1499.7,59.05
1500.2,58.89
1500.7,58.74
1501.2,58.59
1501.7,58.44
1502.2,58.29
1502.7,58.13
1503.2,57.98
1503.7,57.83
1504.2,57.67
1504.7,57.52
1505.2,57.37
1505.7,57.21
1506.2,57.06
1506.7,56.91
1507.2,56.75
1507.7,56.60
1508.2,56.45
1508.7,56.29
1509.2,56.14
1509.7,55.98
1510.2,55.83
1510.7,55.67
1511.2,55.52
1511.7,55.37
1512.2,55.21
1512.7,55.06
1513.2,54.90
1513.7,54.75
1514.2,54.59
1514.7,54.43
1515.2,54.28
1515.7,54.12
1516.2,53.97
1516.7,53.81
1517.2,53.66
1517.7,53.50
1518.2,53.34
1518.7,53.19
1519.2,53.03
1519.7,52.87
1520.2,52.72
1520.7,52.56
1521.2,52.40
1521.7,52.25
1522.2,52.09
1522.7,51.93
1523.2,51.77
1523.7,51.62
1524.2,51.46
1524.7,51.30
1525.2,51.14
1525.7,50.98
1526.2,50.83
1526.7,50.67
1527.2,50.51
1527.7,50.35
1528.2,50.19
1528.7,50.03
1529.2,49.87
1529.7,49.71
1530.2,49.56
1530.7,49.40
1531.2,49.24
1531.7,49.08
1532.2,48.92
1532.7,48.76
1533.2,48.60
1533.7,48.44
1534.2,48.28
1534.7,48.12
1535.2,47.96
1535.7,47.80
1536.2,47.63
1536.7,47.47
1537.2,47.31
1537.7,47.15
1538.2,46.99
1538.7,46.83
1539.2,46.67
1539.7,46.51
1540.2,46.34
1540.7,46.18
1541.2,46.02
1541.7,45.86
1542.2,45.69
1542.7,45.53
1543.2,45.37
1543.7,45.21
1544.2,45.04
1544.7,44.88
1545.2,44.72
1545.7,44.55
1546.2,44.39
1546.7,44.23
1547.2,44.06
1547.7,43.90
1548.2,43.74
1548.7,43.57
1549.2,43.41
1549.7,43.24
1550.2,43.08
1550.7,42.91
1551.2,42.75
1551.7,42.59
1552.2,42.42
1552.7,42.25
1553.2,42.09
1553.7,41.92
1554.2,41.76
1554.7,41.59
1555.2,41.43
1555.7,41.26
1556.2,41.09
1556.7,40.93
1557.2,40.76
1557.7,40.60
1558.2,40.43
1558.7,40.26
1559.2,40.10
1559.7,39.93
1560.2,39.76
1560.7,39.59
1561.2,39.43
1561.7,39.26
1562.2,39.09
1562.7,38.92
1563.2,38.75
1563.7,38.59
1564.2,38.42
1564.7,38.25
1565.2,38.08
1565.7,37.91
1566.2,37.74
1566.7,37.57
1567.2,37.40
1567.7,37.23
1568.2,37.07
1568.7,36.90
1569.2,36.73
1569.7,36.56
1570.2,36.39
1570.7,36.22
1571.2,36.05
1571.7,35.87
1572.2,35.70
1572.7,35.53
1573.2,35.36
1573.7,35.19
1574.2,35.02
1574.7,34.85
1575.2,34.68
1575.7,34.50
1576.2,34.33
1576.7,34.16
1577.2,33.99
1577.7,33.82
1578.2,33.64
1578.7,33.47
1579.2,33.30
1579.7,33.13
1580.2,32.95
1580.7,32.78
1581.2,32.61
1581.7,32.43
1582.2,32.26
1582.7,32.08
1583.2,31.91
1583.7,31.74
1584.2,31.56
1584.7,31.39
1585.2,31.21
1585.7,31.04
1586.2,30.86
1586.7,30.69
1587.2,30.51
1587.7,30.34
1588.2,30.16
1588.7,29.99
1589.2,29.81
1589.7,29.63
1590.2,29.46
1590.7,29.28
1591.2,29.11
1591.7,28.93
1592.2,28.75
1592.7,28.58
1593.2,28.40
1593.7,28.22
1594.2,28.04
1594.7,27.87
1595.2,27.69
1595.7,27.51
1596.2,27.33
1596.7,27.15
1597.2,26.98
1597.7,26.80
1598.2,26.62
1598.7,26.44
1599.2,26.26
1599.7,26.08
1600.2,25.90
1600.7,25.72
1601.2,25.54
1601.7,25.36
1602.2,25.18
1602.7,25.00
1603.2,24.82
1603.7,24.64
1604.2,24.46
1604.7,24.28
1605.2,24.10
1605.7,23.92
1606.2,23.74
1606.7,23.56
1607.2,23.37
1607.7,23.19
1608.2,23.01
1608.7,22.83
1609.2,22.65
1609.7,22.46
1610.2,22.28
1610.7,22.10
1611.2,21.92
1611.7,21.73
1612.2,21.55
1612.7,21.37
1613.2,21.18
1613.7,21.00
1614.2,20.81
1614.7,20.63
1615.2,20.45
1615.7,20.26
1616.2,20.08
1616.7,19.89
1617.2,19.71
1617.7,19.52
1618.2,19.34
1618.7,19.15
1619.2,18.96
1619.7,18.78
1620.2,18.59
1620.7,18.41
1621.2,18.22
1621.7,18.03
1622.2,17.85
1622.7,17.66
1623.2,17.47
1623.7,17.28
1624.2,17.10
1624.7,16.91
1625.2,16.72
1625.7,16.53
1626.2,16.35
1626.7,16.16
1627.2,15.97
1627.7,15.78
1628.2,15.59
1628.7,15.40
1629.2,15.21
1629.7,15.02
1630.2,14.83
1630.7,14.64
1631.2,14.45
1631.7,14.26
1632.2,14.07
1632.7,13.88
1633.2,13.69
1633.7,13.50
1634.2,13.31
1634.7,13.12
1635.2,12.93
1635.7,12.74
1636.2,12.54
1636.7,12.35
1637.2,12.16
1637.7,11.97
1638.2,11.78
1638.7,11.58
1639.2,11.39
1639.7,11.20
1640.2,11.00
1640.7,10.81
1641.2,10.62
1641.7,10.42
1642.2,10.23
1642.7,10.03
1643.2,9.84
1643.7,9.65
1644.2,9.45
1644.7,9.26
1645.2,9.06
1645.7,8.86
1646.2,8.67
1646.7,8.47
1647.2,8.28
1647.7,8.08
1648.2,7.89
1648.7,7.69
1649.2,7.49
1649.7,7.30
1650.2,7.10
1650.7,6.90
1651.2,6.70
1651.7,6.51
1652.2,6.31
1652.7,6.11
1653.2,5.91
1653.7,5.71
1654.2,5.51
1654.7,5.32
1655.2,5.12
1655.7,4.92
1656.2,4.72
1656.7,4.52
1657.2,4.32
1657.7,4.12
1658.2,3.92
1658.7,3.72
1659.2,3.52
1659.7,3.32
1660.2,3.12
1660.7,2.91
1661.2,2.71
1661.7,2.51
1662.2,2.31
1662.7,2.11
1663.2,1.91
1663.7,1.70
1664.2,1.50
1664.7,1.30
1665.2,1.09
1665.7,0.89
1666.2,0.69
1666.7,0.48
1667.2,0.28
1667.7,0.08
1668.2,-0.13
1668.7,-0.33
1669.2,-0.54
1669.7,-0.74
1670.2,-0.95
1670.7,-1.15
1671.2,-1.36
1671.7,-1.56
1672.2,-1.77
1672.7,-1.98
1673.2,-2.18
1673.7,-2.39
1674.2,-2.60
1674.7,-2.80
1675.2,-3.01
1675.7,-3.22
1676.2,-3.42
1676.7,-3.63
1677.2,-3.84
1677.7,-4.05
1678.2,-4.26
1678.7,-4.47
1679.2,-4.67
1679.7,-4.88
1680.2,-5.09
1680.7,-5.30
1681.2,-5.51
1681.7,-5.72
1682.2,-5.93
1682.7,-6.14
1683.2,-6.35
1683.7,-6.56
1684.2,-6.78
1684.7,-6.99
1685.2,-7.20
1685.7,-7.41
1686.2,-7.62
1686.7,-7.83
1687.2,-8.05
1687.7,-8.26
1688.2,-8.47
1688.7,-8.68
1689.2,-8.90
1689.7,-9.11
1690.2,-9.33
1690.7,-9.54
1691.2,-9.75
1691.7,-9.97
1692.2,-10.18
1692.7,-10.40
1693.2,-10.61
1693.7,-10.83
1694.2,-11.04
1694.7,-11.26
1695.2,-11.47
1695.7,-11.69
1696.2,-11.91
1696.7,-12.12
1697.2,-12.34
1697.7,-12.56
1698.2,-12.77
1698.7,-12.99
1699.2,-13.21
1699.7,-13.43
1700.2,-13.65
1700.7,-13.86
1701.2,-14.08
1701.7,-14.30
1702.2,-14.52
1702.7,-14.74
1703.2,-14.96
1703.7,-15.18
1704.2,-15.40
1704.7,-15.62
1705.2,-15.84
1705.7,-16.06
1706.2,-16.28
1706.7,-16.50
1707.2,-16.73
1707.7,-16.95
1708.2,-17.17
1708.7,-17.39
1709.2,-17.61
1709.7,-17.84
1710.2,-18.06
1710.7,-18.28
1711.2,-18.51
1711.7,-18.73
1712.2,-18.95
1712.7,-19.18
1713.2,-19.40
1713.7,-19.63
1714.2,-19.85
1714.7,-20.08
1715.2,-20.30
1715.7,-20.53
1716.2,-20.75
1716.7,-20.98
1717.2,-21.21
1717.7,-21.43
1718.2,-21.66
1718.7,-21.89
1719.2,-22.11
1719.7,-22.34
1720.2,-22.57
1720.7,-22.80
1721.2,-23.03
1721.7,-23.25
1722.2,-23.48
1722.7,-23.71
1723.2,-23.94
1723.7,-24.17
1724.2,-24.40
1724.7,-24.63
1725.2,-24.86
1725.7,-25.09
1726.2,-25.32
1726.7,-25.55
1727.2,-25.78
1727.7,-26.02
1728.2,-26.25
1728.7,-26.48
1729.2,-26.71
1729.7,-26.94
1730.2,-27.18
1730.7,-27.41
1731.2,-27.64
1731.7,-27.88
1732.2,-28.11
1732.7,-28.35
1733.2,-28.58
1733.7,-28.81
1734.2,-29.05
1734.7,-29.28
1735.2,-29.52
1735.7,-29.76
1736.2,-29.99
1736.7,-30.23
1737.2,-30.46
1737.7,-30.70
1738.2,-30.94
1738.7,-31.18
1739.2,-31.41
1739.7,-31.65
1740.2,-31.89
1740.7,-32.13
1741.2,-32.37
1741.7,-32.61
1742.2,-32.84
1742.7,-33.08
1743.2,-33.32
1743.7,-33.56
1744.2,-33.80
1744.7,-34.04
1745.2,-34.29
1745.7,-34.53
1746.2,-34.77
1746.7,-35.01
1747.2,-35.25
1747.7,-35.49
1748.2,-35.74
1748.7,-35.98
1749.2,-36.22
1749.7,-36.46
1750.2,-36.71
1750.7,-36.95
1751.2,-37.20
1751.7,-37.44
1752.2,-37.68
1752.7,-37.93
1753.2,-38.18
1753.7,-38.42
1754.2,-38.67
1754.7,-38.91
1755.2,-39.16
1755.7,-39.41
1756.2,-39.65
1756.7,-39.90
1757.2,-40.15
1757.7,-40.39
1758.2,-40.64
1758.7,-40.89
1759.2,-41.14
1759.7,-41.39
1760.2,-41.64
1760.7,-41.89
1761.2,-42.14
1761.7,-42.39
1762.2,-42.64
1762.7,-42.89
1763.2,-43.14
1763.7,-43.39
1764.2,-43.64
1764.7,-43.89
1765.2,-44.15
1765.7,-44.40
1766.2,-44.65
1766.7,-44.90
1767.2,-45.16
1767.7,-45.41
1768.2,-45.66
1768.7,-45.92
1769.2,-46.17
1769.7,-46.43
1770.2,-46.68
1770.7,-46.94
1771.2,-47.19
1771.7,-47.45
1772.2,-47.71
1772.7,-47.96
1773.2,-48.22
1773.7,-48.48
1774.2,-48.73
1774.7,-48.99
1775.2,-49.25
1775.7,-49.51
1776.2,-49.77
1776.7,-50.03
1777.2,-50.28
1777.7,-50.54
1778.2,-50.80
1778.7,-51.06
1779.2,-51.32
1779.7,-51.59
1780.2,-51.85
1780.7,-52.11
1781.2,-52.37
1781.7,-52.63
1782.2,-52.89
1782.7,-53.16
1783.2,-53.42
1783.7,-53.68
1784.2,-53.95
1784.7,-54.21
1785.2,-54.47
1785.7,-54.74
1786.2,-55.00
1786.7,-55.27
1787.2,-55.53
1787.7,-55.80
1788.2,-56.07
1788.7,-56.33
1789.2,-56.60
1789.7,-56.87
1790.2,-57.13
1790.7,-57.40
1791.2,-57.67
1791.7,-57.94
1792.2,-58.21
1792.7,-58.48
1793.2,-58.75
1793.7,-59.02
1794.2,-59.29
1794.7,-59.56
1795.2,-59.83
1795.7,-60.10
1796.2,-60.37
1796.7,-60.64
1797.2,-60.91
1797.7,-61.19
1798.2,-61.46
1798.7,-61.73
1799.2,-62.00
1799.7,-62.28
1800.2,-62.55
1800.7,-62.83
1801.2,-63.10
1801.7,-63.38
1802.2,-63.65
1802.7,-63.93
1803.2,-64.20
1803.7,-64.48
1804.2,-64.76
1804.7,-65.03
1805.2,-65.31
1805.7,-65.59
1806.2,-65.87
1806.7,-66.14
1807.2,-66.42
1807.7,-66.70
1808.2,-66.98
1808.7,-67.26
1809.2,-67.54
1809.7,-67.82
1810.2,-68.10
1810.7,-68.38
1811.2,-68.67
1811.7,-68.95
1812.2,-69.23
1812.7,-69.51
1813.2,-69.80
1813.7,-70.08
1814.2,-70.36
1814.7,-70.65
1815.2,-70.93
1815.7,-71.22
1816.2,-71.50
1816.7,-71.79
1817.2,-72.07
1817.7,-72.36
1818.2,-72.64
1818.7,-72.93
1819.2,-73.22
1819.7,-73.51
1820.2,-73.79
1820.7,-74.08
1821.2,-74.37
1821.7,-74.66
1822.2,-74.95
1822.7,-75.24
1823.2,-75.53
1823.7,-75.82
1824.2,-76.11
1824.7,-76.40
1825.2,-76.69
1825.7,-76.99
1826.2,-77.28
1826.7,-77.57
1827.2,-77.86
1827.7,-78.16
1828.2,-78.45
1828.7,-78.74
1829.2,-79.04
1829.7,-79.33
1830.2,-79.63
1830.7,-79.93
1831.2,-80.22
1831.7,-80.52
1832.2,-80.81
1832.7,-81.11
1833.2,-81.41
1833.7,-81.71
1834.2,-82.01
1834.7,-82.30
1835.2,-82.60
1835.7,-82.90
1836.2,-83.20
1836.7,-83.50
1837.2,-83.80
1837.7,-84.11
1838.2,-84.41
1838.7,-84.71
1839.2,-85.01
1839.7,-85.31
1840.2,-85.62
1840.7,-85.92
1841.2,-86.22
1841.7,-86.53
1842.2,-86.83
1842.7,-87.14
1843.2,-87.44
1843.7,-87.75
1844.2,-88.05
1844.7,-88.36
1845.2,-88.67
1845.7,-88.98
1846.2,-89.28
1846.7,-89.59
1847.2,-89.90
1847.7,-90.21
1848.2,-90.52
1848.7,-90.83
1849.2,-91.14
1849.7,-91.45
1850.2,-91.76
1850.7,-92.07
1851.2,-92.38
1851.7,-92.70
1852.2,-93.01
1852.7,-93.32
1853.2,-93.63
1853.7,-93.95
1854.2,-94.26
1854.7,-94.58
1855.2,-94.89
1855.7,-95.21
1856.2,-95.52
1856.7,-95.84
1857.2,-96.16
1857.7,-96.47
1858.2,-96.79
1858.7,-97.11
1859.2,-97.43
1859.7,-97.75
1860.2,-98.07
1860.7,-98.39
1861.2,-98.71
1861.7,-99.03
1862.2,-99.35
1862.7,-99.67
1863.2,-99.99
1863.7,-100.31
1864.2,-100.64
1864.7,-100.96
1865.2,-101.28
1865.7,-101.61
1866.2,-101.93
1866.7,-102.26
1867.2,-102.58
1867.7,-102.91
1868.2,-103.23
1868.7,-103.56
1869.2,-103.89
1869.7,-104.22
1870.2,-104.54
1870.7,-104.87
1871.2,-105.20
1871.7,-105.53
1872.2,-105.86
1872.7,-106.19
1873.2,-106.52
1873.7,-106.85
1874.2,-107.18
1874.7,-107.52
1875.2,-107.85
1875.7,-108.18
1876.2,-108.52
1876.7,-108.85
1877.2,-109.18
1877.7,-109.52
1878.2,-109.85
1878.7,-110.19
1879.2,-110.53
1879.7,-110.86
1880.2,-111.20
1880.7,-111.54
1881.2,-111.87
1881.7,-112.21
1882.2,-112.55
1882.7,-112.89
1883.2,-113.23
1883.7,-113.57
1884.2,-113.91
1884.7,-114.25
1885.2,-114.60
1885.7,-114.94
1886.2,-115.28
1886.7,-115.62
1887.2,-115.97
1887.7,-116.31
1888.2,-116.66
1888.7,-117.00
1889.2,-117.35
1889.7,-117.69
1890.2,-118.04
1890.7,-118.39
1891.2,-118.73
1891.7,-119.08
1892.2,-119.43
1892.7,-119.78
1893.2,-120.13
1893.7,-120.48
1894.2,-120.83
1894.7,-121.18
1895.2,-121.53
1895.7,-121.88
1896.2,-122.24
1896.7,-122.59
1897.2,-122.94
1897.7,-123.30
1898.2,-123.65
1898.7,-124.00
1899.2,-124.36
1899.7,-124.72
1900.2,-125.07
1900.7,-125.43
1901.2,-125.79
1901.7,-126.14
1902.2,-126.50
1902.7,-126.86
1903.2,-127.22
1903.7,-127.58
1904.2,-127.94
1904.7,-128.30
1905.2,-128.66
1905.7,-129.03
1906.2,-129.39
1906.7,-129.75
1907.2,-130.12
1907.7,-130.48
1908.2,-130.84
1908.7,-131.21
1909.2,-131.58
1909.7,-131.94
1910.2,-132.31
1910.7,-132.68
1911.2,-133.04
1911.7,-133.41
1912.2,-133.78
1912.7,-134.15
1913.2,-134.52
1913.7,-134.89
1914.2,-135.26
1914.7,-135.63
1915.2,-136.00
1915.7,-136.38
1916.2,-136.75
1916.7,-137.12
1917.2,-137.50
1917.7,-137.87
1918.2,-138.25
1918.7,-138.62
1919.2,-139.00
1919.7,-139.38
1920.2,-139.75
1920.7,-140.13
1921.2,-140.51
1921.7,-140.89
1922.2,-141.27
1922.7,-141.65
1923.2,-142.03
1923.7,-142.41
1924.2,-142.79
1924.7,-143.18
1925.2,-143.56
1925.7,-143.94
1926.2,-144.33
1926.7,-144.71
1927.2,-145.10
1927.7,-145.48
1928.2,-145.87
1928.7,-146.26
1929.2,-146.64
1929.7,-147.03
1930.2,-147.42
1930.7,-147.81
1931.2,-148.20
1931.7,-148.59
1932.2,-148.98
1932.7,-149.37
1933.2,-149.76
1933.7,-150.16
1934.2,-150.55
1934.7,-150.94
1935.2,-151.34
1935.7,-151.73
1936.2,-152.13
1936.7,-152.53
1937.2,-152.92
1937.7,-153.32
1938.2,-153.72
1938.7,-154.12
1939.2,-154.52
1939.7,-154.92
1940.2,-155.32
1940.7,-155.72
1941.2,-156.12
1941.7,-156.52
1942.2,-156.93
1942.7,-157.33
1943.2,-157.73
1943.7,-158.14
1944.2,-158.54
1944.7,-158.95
1945.2,-159.36
1945.7,-159.76
1946.2,-160.17
1946.7,-160.58
1947.2,-160.99
1947.7,-161.40
1948.2,-161.81
1948.7,-162.22
1949.2,-162.63
1949.7,-163.04
1950.2,-163.46
1950.7,-163.87
1951.2,-164.28
1951.7,-164.70
1952.2,-165.11
1952.7,-165.53
1953.2,-165.95
1953.7,-166.36
1954.2,-166.78
1954.7,-167.20
1955.2,-167.62
1955.7,-168.04
1956.2,-168.46
1956.7,-168.88
1957.2,-169.30
1957.7,-169.72
1958.2,-170.15
1958.7,-170.57
1959.2,-171.00
1959.7,-171.42
1960.2,-171.85
1960.7,-172.27
1961.2,-172.70
1961.7,-173.13
1962.2,-173.56
1962.7,-173.98
1963.2,-174.41
1963.7,-174.84
1964.2,-175.28
1964.7,-175.71
1965.2,-176.14
1965.7,-176.57
1966.2,-177.01
1966.7,-177.44
1967.2,-177.88
1967.7,-178.31
1968.2,-178.75
1968.7,-179.19
1969.2,-179.62
1969.7,-180.06
1970.2,-180.50
1970.7,-180.94
1971.2,-181.38
1971.7,-181.82
1972.2,-182.27
1972.7,-182.71
1973.2,-183.15
1973.7,-183.60
1974.2,-184.04
1974.7,-184.49
1975.2,-184.93
1975.7,-185.38
1976.2,-185.83
1976.7,-186.28
1977.2,-186.72
1977.7,-187.17
1978.2,-187.62
1978.7,-188.08
1979.2,-188.53
1979.7,-188.98
1980.2,-189.43
1980.7,-189.89
1981.2,-190.34
1981.7,-190.80
1982.2,-191.26
1982.7,-191.71
1983.2,-192.17
1983.7,-192.63
1984.2,-193.09
1984.7,-193.55
1985.2,-194.01
1985.7,-194.47
1986.2,-194.93
1986.7,-195.40
1987.2,-195.86
1987.7,-196.32
1988.2,-196.79
1988.7,-197.26
1989.2,-197.72
1989.7,-198.19
1990.2,-198.66
1990.7,-199.13
1991.2,-199.60
1991.7,-200.07
1992.2,-200.54
1992.7,-201.01
1993.2,-201.48
1993.7,-201.96
1994.2,-202.43
1994.7,-202.91
1995.2,-203.38
1995.7,-203.86
1996.2,-204.34
1996.7,-204.82
1997.2,-205.30
1997.7,-205.78
1998.2,-206.26
1998.7,-206.74
1999.2,-207.22
